File: versuche/roentgenreflektometrie/messwerte/Diffus2.uxd
; (content of file C:\Dokumente und Einstellungen\TU Dortmund\Desktop\Jan-Mareike\Messung2.raw)
_FILEVERSION = 2
_SAMPLE =
_+SAMPLE =
_SITE = Deutschland
_USER = Administrator
_GONIOMETER_CODE = 21
_STAGE_CODE = 19
; Goniometer : D8 theta/theta, stage : Unknown
_SAMPLE_CHANGER_CODE = 0
_ATTACHMENTS_CODE = 0
_GONIOMETER_RADIUS = 350
_FIXED_DIVSLIT = 0.6
_FIXED_SAMPLESLIT = 0
_FIXED_DETSLIT = 11.66
_MONOCHROMATOR = 0
; Incident beam monochromator : None
_THIN_FILM = N
_BETA_FILTER = Y
_FIXED_ANTISLIT = 8.34
_ANALYZER_CODE = 0
; Received beam analyzer : None
_DATEMEASURED = "25-Mar-2015 13:29:06"
_WL_UNIT = A
_WL1 = 1.5406
_WL2 = 1.54439
_WL3 = 1.39222
_WLRATIO = 0.5
_ANODE = Cu

; Data for range 1
_DRIVE = THETA
_STEPTIME = 19.97
_STEPSIZE = 0.005
_STEPMODE = C
_START = 0
_THETA = 0
_2THETA = 0.15
_KHI = 0
_PHI = 0
_X = -1.85
_Y = -0.684
_Z = -4.639
_DETECTOR = 5
; Detector type : Unknown
_DETECTORSLIT = out
_AUX1 = 0
_AUX2 = 0
_AUX3 = 0
_TIMESTARTED = 2
_TEMP_RATE = -1
_TEMP_DELAY = -1
_KV = 40
_MA = 35
_RANGE_WL = 1.5406
_3DPLANE = 0
_V4_COUNTERS_MASK = 4096
_V4_DRIVES_MASK = 0
_V4_ENCODERS_MASK = 0
_2THETACOUNTS = 1
; THETA  PSD
   0.0000    1190990
   0.0100    1048880
   0.0200     921617
   0.0300     747560
   0.0400     641070
   0.0500     579367
   0.0600     508990
   0.0700     435489
   0.0800     381635
   0.0900     346179
   0.1000     306945
   0.1100     276155
   0.1200     257450
   0.1300     238308
   0.1400     221380
   0.1500     193803
   0.1600     159161
   0.1700     125784
   0.1800      97579
   0.1900      74568
   0.2000      52895
   0.2100      35446
   0.2200      21606
   0.2300      13227
   0.2400       9400
   0.2500       8349
   0.2600       7664
   0.2700       6805
   0.2800       6109
   0.2900       5401
   0.3000       4802
   0.3100       4293
   0.3200       3910
   0.3300       3537
   0.3400       3283
   0.3500       2813
   0.3600       2499
   0.3700       2202
   0.3800       1980
   0.3900       1629
   0.4000       1318
   0.4100       1107
   0.4200        936
   0.4300        910
   0.4400        813
   0.4500        788
   0.4600        739
   0.4700        718
   0.4800        644
   0.4900        596
   0.5000        568
   0.5100        508
   0.5200        451
   0.5300        465
   0.5400        422
   0.5500        415
   0.5600        384
   0.5700        338
   0.5800        343
   0.5900        289
   0.6000        323
   0.6100        297
   0.6200        246
   0.6300        234
   0.6400        235
   0.6500        222
   0.6600        218
   0.6700        211
   0.6800        201
   0.6900        182
   0.7000        184
   0.7100        145
   0.7200        160
   0.7300        137
   0.7400        112
   0.7500        129
   0.7600        109
   0.7700        115
   0.7800         96
   0.7900        102
   0.8000        102
   0.8100         76
   0.8200         75
   0.8300         87
   0.8400         80
   0.8500         67
   0.8600         65
   0.8700         65
   0.8800         70
   0.8900         60
   0.9000         52
   0.9100         57
   0.9200         51
   0.9300         42
   0.9400         39
   0.9500         43
   0.9600         40
   0.9700         43
   0.9800         38
   0.9900         30
   1.0000         33
   1.0100         35
   1.0200         37
   1.0300         40
   1.0400         20
   1.0500         23
   1.0600         37
   1.0700         29
   1.0800         25
   1.0900         24
   1.1000         20
   1.1100         21
   1.1200         23
   1.1300         22
   1.1400         21
   1.1500         25
   1.1600         31
   1.1700         27
   1.1800         21
   1.1900         23
   1.2000         27
   1.2100         23
   1.2200         16
   1.2300         20
   1.2400         18
   1.2500         22
   1.2600         20
   1.2700         23
   1.2800          8
   1.2900         19
   1.3000         16
   1.3100         27
   1.3200         14
   1.3300         28
   1.3400         18
   1.3500         21
   1.3600         23
   1.3700         23
   1.3800         12
   1.3900         15
   1.4000         16
   1.4100         17
   1.4200         14
   1.4300         21
   1.4400         18
   1.4500         14
   1.4600         16
   1.4700         13
   1.4800         19
   1.4900         14
   1.5000         16
   1.5100         18
   1.5200         15
   1.5300         17
   1.5400         16
   1.5500         12
   1.5600         17
   1.5700         16
   1.5800         10
   1.5900         14
   1.6000          9
   1.6100         12
   1.6200         10
   1.6300         18
   1.6400         10
   1.6500         10
   1.6600          7
   1.6700         10
   1.6800         12
   1.6900         12
   1.7000         15
   1.7100         16
   1.7200         13
   1.7300         15
   1.7400         12
   1.7500         10
   1.7600         13
   1.7700          6
   1.7800         12
   1.7900          6
   1.8000          7
   1.8100          9
   1.8200         11
   1.8300         11
   1.8400          5
   1.8500          7
   1.8600         10
   1.8700         10
   1.8800          7
   1.8900         11
   1.9000         19
   1.9100          6
   1.9200         13
   1.9300          9
   1.9400         10
   1.9500          6
   1.9600          5
   1.9700          3
   1.9800         11
   1.9900          9
   2.0000          9
   2.0100         10
   2.0200          5
   2.0300          4
   2.0400         10
   2.0500          5
   2.0600          5
   2.0700          3
   2.0800          6
   2.0900          9
   2.1000         10
   2.1100          4
   2.1200          8
   2.1300          6
   2.1400         10
   2.1500          7
   2.1600          7
   2.1700          9
   2.1800         10
   2.1900          7
   2.2000          7
   2.2100          7
   2.2200          8
   2.2300         10
   2.2400         11
   2.2500          2
   2.2600          6
   2.2700          6
   2.2800          8
   2.2900          4
   2.3000          5
   2.3100          4
   2.3200          7
   2.3300          3
   2.3400          1
   2.3500          7
   2.3600          2
   2.3700          5
   2.3800          4
   2.3900          6
   2.4000          5
   2.4100          4
   2.4200          9
   2.4300          2
   2.4400          5
   2.4500          9
   2.4600          6
   2.4700          8
   2.4800          5
   2.4900          7
   2.5000         11