File: versuche/roentgenreflektometrie/messwerte/Messung.uxd
; (content of file C:\Dokumente und Einstellungen\TU Dortmund\Desktop\Praktikum\Mario\Messung.raw)
_FILEVERSION = 2
_SAMPLE =
_+SAMPLE =
_SITE = Deutschland
_USER = Administrator
_GONIOMETER_CODE = 21
_STAGE_CODE = 19
; Goniometer : D8 theta/theta, stage : Unknown
_SAMPLE_CHANGER_CODE = 0
_ATTACHMENTS_CODE = 0
_GONIOMETER_RADIUS = 350
_FIXED_DIVSLIT = 0.6
_FIXED_SAMPLESLIT = 0
_FIXED_DETSLIT = 11.66
_MONOCHROMATOR = 0
; Incident beam monochromator : None
_THIN_FILM = N
_BETA_FILTER = Y
_FIXED_ANTISLIT = 8.34
_ANALYZER_CODE = 0
; Received beam analyzer : None
_DATEMEASURED = "27-Apr-2015 11:09:34"
_WL_UNIT = A
_WL1 = 1.5406
_WL2 = 1.54439
_WL3 = 1.39222
_WLRATIO = 0.5
_ANODE = Cu

; Data for range 1
_DRIVE = THETA
_STEPTIME = 19.97
_STEPSIZE = 0.005
_STEPMODE = C
_START = 0
_THETA = 0
_2THETA = 0
_KHI = 0
_PHI = 0
_X = 9.6
_Y = 0
_Z = -6.401
_DETECTOR = 5
; Detector type : Unknown
_DETECTORSLIT = out
_AUX1 = 0
_AUX2 = 0
_AUX3 = 0
_TIMESTARTED = 3
_TEMP_RATE = -1
_TEMP_DELAY = -1
_KV = 40
_MA = 35
_RANGE_WL = 1.5406
_3DPLANE = 0
_V4_COUNTERS_MASK = 4096
_V4_DRIVES_MASK = 0
_V4_ENCODERS_MASK = 0
_2THETACOUNTS = 1
; THETA  PSD
   0.0000    9426040
   0.0100    9901120
   0.0200    7737960
   0.0300    4976340
   0.0400    2926250
   0.0500    1944610
   0.0600    1626720
   0.0700    1528650
   0.0800    1568450
   0.0900    1652860
   0.1000    1743000
   0.1100    1838410
   0.1200    1938260
   0.1300    2045860
   0.1400    2157730
   0.1500    2271100
   0.1600    2367110
   0.1700    2448010
   0.1800    2490010
   0.1900    2475460
   0.2000    2385560
   0.2100    2084310
   0.2200    1611920
   0.2300    1093050
   0.2400     682954
   0.2500     484091
   0.2600     371490
   0.2700     286552
   0.2800     213892
   0.2900     155456
   0.3000     106383
   0.3100      70386
   0.3200      42862
   0.3300      24378
   0.3400      14002
   0.3500       8875
   0.3600       8588
   0.3700      11055
   0.3800      15079
   0.3900      19748
   0.4000      23755
   0.4100      27066
   0.4200      29467
   0.4300      29799
   0.4400      29295
   0.4500      27611
   0.4600      24645
   0.4700      21093
   0.4800      17300
   0.4900      13608
   0.5000      10156
   0.5100       7071
   0.5200       4554
   0.5300       2884
   0.5400       1937
   0.5500       1563
   0.5600       1712
   0.5700       2310
   0.5800       3125
   0.5900       4076
   0.6000       5015
   0.6100       5896
   0.6200       6451
   0.6300       6860
   0.6400       6717
   0.6500       6527
   0.6600       6153
   0.6700       5499
   0.6800       4559
   0.6900       3662
   0.7000       2794
   0.7100       2025
   0.7200       1346
   0.7300        899
   0.7400        579
   0.7500        433
   0.7600        474
   0.7700        564
   0.7800        821
   0.7900       1142
   0.8000       1399
   0.8100       1696
   0.8200       1950
   0.8300       2065
   0.8400       2135
   0.8500       2146
   0.8600       2045
   0.8700       1808
   0.8800       1596
   0.8900       1325
   0.9000       1103
   0.9100        827
   0.9200        643
   0.9300        406
   0.9400        309
   0.9500        201
   0.9600        195
   0.9700        209
   0.9800        265
   0.9900        382
   1.0000        456
   1.0100        589
   1.0200        717
   1.0300        751
   1.0400        803
   1.0500        837
   1.0600        830
   1.0700        768
   1.0800        675
   1.0900        639
   1.1000        521
   1.1100        406
   1.1200        325
   1.1300        205
   1.1400        183
   1.1500        107
   1.1600         97
   1.1700         92
   1.1800        101
   1.1900        118
   1.2000        201
   1.2100        235
   1.2200        254
   1.2300        292
   1.2400        361
   1.2500        359
   1.2600        371
   1.2700        360
   1.2800        341
   1.2900        282
   1.3000        262
   1.3100        233
   1.3200        176
   1.3300        120
   1.3400        105
   1.3500         65
   1.3600         61
   1.3700         39
   1.3800         37
   1.3900         39
   1.4000         68
   1.4100         84
   1.4200        116
   1.4300        121
   1.4400        156
   1.4500        160
   1.4600        169
   1.4700        177
   1.4800        172
   1.4900        160
   1.5000        138
   1.5100        132
   1.5200        107
   1.5300         82
   1.5400         61
   1.5500         51
   1.5600         37
   1.5700         28
   1.5800         34
   1.5900         27
   1.6000         29
   1.6100         39
   1.6200         58
   1.6300         63
   1.6400         69
   1.6500         81
   1.6600         91
   1.6700        100
   1.6800         78
   1.6900         74
   1.7000         82
   1.7100         74
   1.7200         63
   1.7300         53
   1.7400         50
   1.7500         35
   1.7600         31
   1.7700         25
   1.7800         13
   1.7900         15
   1.8000         18
   1.8100         27
   1.8200         34
   1.8300         24
   1.8400         35
   1.8500         39
   1.8600         60
   1.8700         45
   1.8800         61
   1.8900         45
   1.9000         46
   1.9100         55
   1.9200         42
   1.9300         40
   1.9400         24
   1.9500         24
   1.9600         12
   1.9700         16
   1.9800         18
   1.9900         15
   2.0000         22
   2.0100         16
   2.0200         17
   2.0300         19
   2.0400         24
   2.0500         21
   2.0600         19
   2.0700         23
   2.0800         18
   2.0900         25
   2.1000         30
   2.1100         26
   2.1200         30
   2.1300         26
   2.1400         23
   2.1500         18
   2.1600         15
   2.1700         17
   2.1800         15
   2.1900         11
   2.2000         10
   2.2100          7
   2.2200         12
   2.2300          7
   2.2400         17
   2.2500         19
   2.2600         20
   2.2700         20
   2.2800         21
   2.2900         23
   2.3000         15
   2.3100         24
   2.3200         20
   2.3300         15
   2.3400         14
   2.3500         12
   2.3600          7
   2.3700         10
   2.3800         10
   2.3900          4
   2.4000          5
   2.4100          7
   2.4200          9
   2.4300          7
   2.4400          7
   2.4500          6
   2.4600         14
   2.4700         11
   2.4800         15
   2.4900         11
   2.5000         11